transmission:T: -Re(T) vs lambda

lambda(nm), -Re(T)
500, 0.587282
501.001, 0.58841
502.001, 0.589738
503.002, 0.590108
504.003, 0.59179
505.003, 0.591934
506.004, 0.59334
507.005, 0.593842
508.005, 0.594551
509.006, 0.595612
510.007, 0.595655
511.007, 0.597051
512.008, 0.596789
513.009, 0.598097
514.009, 0.597952
515.01, 0.598811
516.011, 0.599052
517.011, 0.599307
518.012, 0.599983
519.013, 0.599684
520.013, 0.600675
521.014, 0.599996
522.015, 0.601102
523.015, 0.600253
524.016, 0.601279
525.017, 0.60044
526.017, 0.601237
527.018, 0.600527
528.019, 0.601015
529.019, 0.600492
530.02, 0.600641
531.021, 0.600318
532.021, 0.600142
533.022, 0.6
534.023, 0.599533
535.023, 0.599541
536.024, 0.598829
537.025, 0.598952
538.025, 0.598044
539.026, 0.598248
540.027, 0.597199
541.027, 0.597452
542.028, 0.596323
543.029, 0.596591
544.029, 0.59546
545.03, 0.595707
546.031, 0.594681
547.031, 0.594861
548.032, 0.594098
549.033, 0.594151
550.033, 0.593895
551.034, 0.593748
552.035, 0.594392
553.035, 0.593972
554.036, 0.596204
555.037, 0.595483
556.037, 0.600734
557.038, 0.599892
558.039, 0.612343
559.039, 0.612857
560.04, 0.668116
561.041, 0.705775
562.041, 0.725273
563.042, 0.735986
564.043, 0.708513
565.043, 0.740887
566.044, 0.738113
567.045, 0.721504
568.045, 0.727102
569.046, 0.729737
570.047, 0.734033
571.047, 0.723509
572.048, 0.722881
573.049, 0.720132
574.049, 0.721119
575.05, 0.719112
576.051, 0.71298
577.051, 0.710403
578.052, 0.702084
579.053, 0.699275
580.053, 0.683635
581.054, 0.64695
582.055, 0.617495
583.055, 0.599193
584.056, 0.577152
585.057, 0.556515
586.057, 0.542189
587.058, 0.527506
588.059, 0.513282
589.059, 0.503062
590.06, 0.491655
591.061, 0.477835
592.061, 0.468162
593.062, 0.456118
594.063, 0.442891
595.063, 0.433156
596.064, 0.420206
597.065, 0.408756
598.065, 0.39787
599.066, 0.385431
600.067, 0.375326
601.067, 0.363797
602.068, 0.353195
603.069, 0.343386
604.069, 0.332659
605.07, 0.323654
606.071, 0.313968
607.071, 0.304953
608.072, 0.296709
609.073, 0.287862
610.073, 0.28049
611.074, 0.272792
612.075, 0.265349
613.075, 0.258796
614.076, 0.251697
615.077, 0.245643
616.077, 0.239684
617.078, 0.233633
618.079, 0.228482
619.079, 0.222926
620.08, 0.217897
621.081, 0.213347
622.081, 0.208538
623.082, 0.204522
624.083, 0.200488
625.083, 0.196509
626.084, 0.193177
627.085, 0.189613
628.085, 0.186446
629.086, 0.183667
630.087, 0.180722
631.087, 0.178333
632.088, 0.176059
633.089, 0.173772
634.089, 0.172007
635.09, 0.170181
636.091, 0.168509
637.091, 0.167247
638.092, 0.165874
639.093, 0.164778
640.093, 0.163961
641.094, 0.16305
642.095, 0.162465
643.095, 0.162037
644.096, 0.161554
645.097, 0.161392
646.097, 0.1613
647.098, 0.161197
648.099, 0.16139
649.099, 0.161605
650.1, 0.161847
651.101, 0.162353
652.101, 0.162858
653.102, 0.163411
654.103, 0.164195
655.103, 0.164967
656.104, 0.165791
657.105, 0.166814
658.105, 0.16782
659.106, 0.16887
660.107, 0.170096
661.107, 0.171305
662.108, 0.172544
663.109, 0.173941
664.109, 0.175329
665.11, 0.176729
666.111, 0.178276
667.111, 0.179825
668.112, 0.181367
669.113, 0.183044
670.113, 0.184739
671.114, 0.186406
672.115, 0.188192
673.115, 0.190017
674.116, 0.191794
675.117, 0.193668
676.117, 0.195604
677.118, 0.197478
678.119, 0.199416
679.119, 0.201443
680.12, 0.203405
681.121, 0.205391
682.121, 0.207485
683.122, 0.20953
684.123, 0.211551
685.123, 0.213691
686.124, 0.215814
687.125, 0.217868
688.125, 0.220028
689.126, 0.222222
690.127, 0.224316
691.127, 0.226475
692.128, 0.228723
693.129, 0.23087
694.129, 0.233015
695.13, 0.235289
696.131, 0.237501
697.131, 0.239635
698.132, 0.241898
699.133, 0.244175
700.133, 0.24632
701.134, 0.248538
702.135, 0.250857
703.135, 0.253044
704.136, 0.255205
705.137, 0.257518
706.137, 0.259773
707.138, 0.261899
708.139, 0.26415
709.139, 0.266462
710.14, 0.268606
711.141, 0.270763
712.141, 0.273079
713.142, 0.275292
714.143, 0.277378
715.143, 0.279617
716.144, 0.281903
717.145, 0.283995
718.145, 0.286109
719.146, 0.288398
720.147, 0.290573
721.147, 0.292596
722.148, 0.294779
723.149, 0.297038
724.149, 0.299082
725.15, 0.301108
726.151, 0.303342
727.151, 0.305497
728.152, 0.307445
729.153, 0.309519
730.153, 0.311744
731.154, 0.313765
732.155, 0.31567
733.155, 0.317794
734.156, 0.319949
735.157, 0.321843
736.157, 0.323751
737.158, 0.325897
738.159, 0.32794
739.159, 0.329736
740.16, 0.331668
741.161, 0.333796
742.161, 0.335713
743.162, 0.337442
744.163, 0.339398
745.163, 0.341474
746.164, 0.343266
747.165, 0.344953
748.165, 0.346922
749.166, 0.348923
750.167, 0.3506
751.167, 0.352259
752.168, 0.354223
753.169, 0.356139
754.169, 0.357716
755.17, 0.359346
756.171, 0.361292
757.171, 0.363123
758.172, 0.364608
759.173, 0.366205
760.173, 0.368121
761.174, 0.369874
762.175, 0.371274
763.175, 0.372824
764.176, 0.374703
765.177, 0.376391
766.177, 0.377708
767.178, 0.379194
768.179, 0.381031
769.179, 0.382667
770.18, 0.383904
771.181, 0.385304
772.181, 0.387092
773.182, 0.388696
774.183, 0.389855
775.183, 0.391144
776.184, 0.39287
777.185, 0.394461
778.185, 0.395553
779.186, 0.396703
780.187, 0.398343
781.187, 0.39994
782.188, 0.400985
783.189, 0.401969
784.189, 0.403481
785.19, 0.405093
786.191, 0.406127
787.191, 0.406924
788.192, 0.408246
789.193, 0.40986
790.193, 0.41093
791.194, 0.411544
792.195, 0.412589
793.195, 0.414151
794.196, 0.415308
795.197, 0.415772
796.197, 0.416446
797.198, 0.417836
798.199, 0.419102
799.199, 0.419495
800.2, 0.419712
801.201, 0.420726
802.201, 0.422042
803.202, 0.422469
804.203, 0.42219
805.203, 0.422531
806.204, 0.423674
807.205, 0.424203
808.205, 0.423448
809.206, 0.422723
810.207, 0.423177
811.207, 0.423681
812.208, 0.422471
813.209, 0.420128
814.209, 0.418826
815.21, 0.418595
816.211, 0.416638
817.211, 0.411473
818.212, 0.405678
819.213, 0.401965
820.213, 0.397137
821.214, 0.382958
822.215, 0.354537
823.215, 0.316466
824.216, 0.279177
825.217, 0.250105
826.217, 0.230016
827.218, 0.217144
828.219, 0.211787
829.219, 0.215028
830.22, 0.224583
831.221, 0.234802
832.221, 0.241514
833.222, 0.24542
834.223, 0.249787
835.223, 0.25584
836.224, 0.261807
837.225, 0.266028
838.225, 0.269298
839.226, 0.273406
840.227, 0.278467
841.227, 0.282939
842.228, 0.28604
843.229, 0.288889
844.229, 0.292821
845.23, 0.297443
846.231, 0.301216
847.231, 0.303687
848.232, 0.306159
849.233, 0.309899
850.233, 0.314374
851.234, 0.317951
852.235, 0.320085
853.235, 0.32206
854.236, 0.325334
855.237, 0.329692
856.237, 0.333553
857.238, 0.335954
858.239, 0.337652
859.239, 0.340089
860.24, 0.343668
861.241, 0.347458
862.241, 0.350483
863.242, 0.352819
864.243, 0.355251
865.243, 0.358153
866.244, 0.361115
867.245, 0.363669
868.245, 0.365993
869.246, 0.368665
870.247, 0.371844
871.247, 0.375012
872.248, 0.377599
873.249, 0.379677
874.249, 0.381831
875.25, 0.384435
876.251, 0.38724
877.252, 0.389762
878.252, 0.391915
879.253, 0.394087
880.254, 0.396616
881.254, 0.39934
882.255, 0.401798
883.256, 0.403787
884.256, 0.405585
885.257, 0.407593
886.258, 0.409846
887.258, 0.412002
888.259, 0.413778
889.26, 0.415289
890.26, 0.416889
891.261, 0.418735
892.262, 0.420597
893.262, 0.42214
894.263, 0.423307
895.264, 0.424361
896.264, 0.425555
897.265, 0.426824
898.266, 0.427874
899.266, 0.428515
900.267, 0.428874
901.268, 0.42922
902.268, 0.429645
903.269, 0.429958
904.27, 0.429902
905.27, 0.429441
906.271, 0.428779
907.272, 0.428113
908.272, 0.427407
909.273, 0.426434
910.274, 0.42503
911.274, 0.423265
912.275, 0.421347
913.276, 0.419381
914.276, 0.417249
915.277, 0.414738
916.278, 0.411767
917.278, 0.408456
918.279, 0.404979
919.28, 0.401364
920.28, 0.397464
921.281, 0.393113
922.282, 0.3883
923.282, 0.383176
924.283, 0.377885
925.284, 0.372423
926.284, 0.366652
927.285, 0.360462
928.286, 0.353898
929.286, 0.34712
930.287, 0.340247
931.288, 0.333251
932.288, 0.326012
933.289, 0.318456
934.29, 0.310652
935.29, 0.302748
936.291, 0.294838
937.292, 0.286882
938.292, 0.278772
939.293, 0.270458
940.294, 0.262019
941.294, 0.253596
942.295, 0.245273
943.296, 0.237012
944.296, 0.228721
945.297, 0.220367
946.298, 0.212034
947.298, 0.20386
948.299, 0.195924
949.3, 0.188196
950.3, 0.180588
951.301, 0.173066
952.302, 0.165702
953.302, 0.158619
954.303, 0.151893
955.304, 0.14549
956.304, 0.139316
957.305, 0.133317
958.306, 0.127535
959.306, 0.122076
960.307, 0.117011
961.308, 0.112312
962.308, 0.107878
963.309, 0.103631
964.31, 0.0995818
965.31, 0.0958177
966.311, 0.092417
967.312, 0.0893722
968.312, 0.0865916
969.313, 0.0839778
970.314, 0.0815092
971.314, 0.0792531
972.315, 0.0772987
973.316, 0.0756717
974.316, 0.0743057
975.317, 0.0730959
976.318, 0.0719856
977.318, 0.0710097
978.319, 0.0702585
979.32, 0.0697926
980.32, 0.0695857
981.321, 0.069542
982.322, 0.0695733
983.322, 0.0696687
984.323, 0.0698977
985.324, 0.0703449
986.324, 0.0710331
987.325, 0.0718987
988.326, 0.0728402
989.326, 0.0737971
990.327, 0.0747945
991.328, 0.0759158
992.328, 0.0772286
993.329, 0.0787234
994.33, 0.0803178
995.33, 0.0819182
996.331, 0.0834918
997.332, 0.0850874
998.332, 0.0867911
999.333, 0.0886532
1000.33, 0.0906441
1001.33, 0.0926751
1002.33, 0.0946661
1003.34, 0.0966049
1004.34, 0.0985536
1005.34, 0.100597
1006.34, 0.102772
1007.34, 0.10504
1008.34, 0.107313
1009.34, 0.109521
1010.34, 0.111665
1011.34, 0.113812
1012.34, 0.116042
1013.34, 0.118388
1014.34, 0.120809
1015.34, 0.12322
1016.34, 0.125555
1017.34, 0.127819
1018.35, 0.130077
1019.35, 0.132409
1020.35, 0.134847
1021.35, 0.137352
1022.35, 0.139845
1023.35, 0.14226
1024.35, 0.144596
1025.35, 0.146913
1026.35, 0.149288
1027.35, 0.151762
1028.35, 0.154304
1029.35, 0.156839
1030.35, 0.159299
1031.35, 0.161672
1032.35, 0.164006
1033.36, 0.166378
1034.36, 0.168837
1035.36, 0.171369
1036.36, 0.173909
1037.36, 0.176384
1038.36, 0.178765
1039.36, 0.181085
1040.36, 0.183416
1041.36, 0.185818
1042.36, 0.188299
1043.36, 0.190808
1044.36, 0.193272
1045.36, 0.195646
1046.36, 0.197937
1047.36, 0.200208
1048.37, 0.202525
1049.37, 0.204921
1050.37, 0.20737
1051.37, 0.209806
1052.37, 0.212166
1053.37, 0.214434
1054.37, 0.216647
1055.37, 0.218873
1056.37, 0.221166
1057.37, 0.22353
1058.37, 0.225918
1059.37, 0.228265
1060.37, 0.230524
1061.37, 0.232703
1062.37, 0.234853
1063.38, 0.237039
1064.38, 0.239299
1065.38, 0.241617
1066.38, 0.243937
1067.38, 0.246199
1068.38, 0.248373
1069.38, 0.250481
1070.38, 0.252578
1071.38, 0.254725
1072.38, 0.256943
1073.38, 0.259209
1074.38, 0.261464
1075.38, 0.263652
1076.38, 0.265755
1077.38, 0.2678
1078.39, 0.269847
1079.39, 0.271946
1080.39, 0.274115
1081.39, 0.276324
1082.39, 0.278515
1083.39, 0.280638
1084.39, 0.282677
1085.39, 0.284664
1086.39, 0.286653
1087.39, 0.288694
1088.39, 0.290801
1089.39, 0.292946
1090.39, 0.295075
1091.39, 0.297137
1092.39, 0.299117
1093.4, 0.301042
1094.4, 0.302964
1095.4, 0.304933
1096.4, 0.306966
1097.4, 0.30904
1098.4, 0.311103
1099.4, 0.313107
1100.4, 0.315031
1101.4, 0.316892
1102.4, 0.31874
1103.4, 0.320623
1104.4, 0.322568
1105.4, 0.324559
1106.4, 0.326553
1107.4, 0.328499
1108.41, 0.330368
1109.41, 0.332166
1110.41, 0.333934
1111.41, 0.335721
1112.41, 0.337561
1113.41, 0.339455
1114.41, 0.341368
1115.41, 0.34325
1116.41, 0.345064
1117.41, 0.346801
1118.41, 0.348487
1119.41, 0.350169
1120.41, 0.351889
1121.41, 0.353663
1122.41, 0.355473
1123.42, 0.357277
1124.42, 0.359028
1125.42, 0.360702
1126.42, 0.362307
1127.42, 0.363878
1128.42, 0.365461
1129.42, 0.367089
1130.42, 0.368762
1131.42, 0.370454
1132.42, 0.372118
1133.42, 0.373718
1134.42, 0.375237
1135.42, 0.376694
1136.42, 0.378127
1137.42, 0.379579
1138.43, 0.381072
1139.43, 0.382601
1140.43, 0.384132
1141.43, 0.385623
1142.43, 0.38704
1143.43, 0.388375
1144.43, 0.389648
1145.43, 0.3909
1146.43, 0.392167
1147.43, 0.393469
1148.43, 0.394795
1149.43, 0.396113
1150.43, 0.397381
1151.43, 0.398568
1152.43, 0.399669
1153.44, 0.400703
1154.44, 0.401708
1155.44, 0.402718
1156.44, 0.403753
1157.44, 0.404802
1158.44, 0.405835
1159.44, 0.406812
1160.44, 0.407701
1161.44, 0.408496
1162.44, 0.409212
1163.44, 0.409884
1164.44, 0.410545
1165.44, 0.411216
1166.44, 0.411892
1167.44, 0.412546
1168.45, 0.413139
1169.45, 0.41364
1170.45, 0.414036
1171.45, 0.414335
1172.45, 0.414568
1173.45, 0.414768
1174.45, 0.414959
1175.45, 0.415142
1176.45, 0.415299
1177.45, 0.415394
1178.45, 0.415395
1179.45, 0.415279
1180.45, 0.415048
1181.45, 0.414725
1182.45, 0.414339
1183.46, 0.413919
1184.46, 0.413477
1185.46, 0.413004
1186.46, 0.412471
1187.46, 0.411845
1188.46, 0.411099
1189.46, 0.410223
1190.46, 0.409228
1191.46, 0.40814
1192.46, 0.40699
1193.46, 0.405797
1194.46, 0.404567
1195.46, 0.403284
1196.46, 0.401918
1197.46, 0.400439
1198.47, 0.398828
1199.47, 0.397082
1200.47, 0.395218
1201.47, 0.393263
1202.47, 0.391246
1203.47, 0.389185
1204.47, 0.387078
1205.47, 0.38491
1206.47, 0.382653
1207.47, 0.380282
1208.47, 0.377783
1209.47, 0.375158
1210.47, 0.372427
1211.47, 0.369618
1212.47, 0.366759
1213.48, 0.363867
1214.48, 0.360942
1215.48, 0.357969
1216.48, 0.354926
1217.48, 0.35179
1218.48, 0.348551
1219.48, 0.345215
1220.48, 0.341802
1221.48, 0.33834
1222.48, 0.334859
1223.48, 0.331375
1224.48, 0.327893
1225.48, 0.324402
1226.48, 0.320882
1227.48, 0.317316
1228.49, 0.313693
1229.49, 0.310018
1230.49, 0.306309
1231.49, 0.302595
1232.49, 0.298904
1233.49, 0.295257
1234.49, 0.291661
1235.49, 0.288109
1236.49, 0.284586
1237.49, 0.281073
1238.49, 0.27756
1239.49, 0.274045
1240.49, 0.270544
1241.49, 0.267079
1242.49, 0.263679
1243.5, 0.260365
1244.5, 0.257148
1245.5, 0.254026
1246.5, 0.250986
1247.5, 0.248009
1248.5, 0.245079
1249.5, 0.24219
1250.5, 0.239347
1251.5, 0.236567
1252.5, 0.233873
1253.5, 0.231287
1254.5, 0.228824
1255.5, 0.226487
1256.5, 0.224265
1257.51, 0.222141
1258.51, 0.220095
1259.51, 0.218113
1260.51, 0.21619
1261.51, 0.214333
1262.51, 0.212558
1263.51, 0.210886
1264.51, 0.209334
1265.51, 0.207911
1266.51, 0.206613
1267.51, 0.205428
1268.51, 0.204335
1269.51, 0.203314
1270.51, 0.20235
1271.51, 0.201439
1272.52, 0.200589
1273.52, 0.199814
1274.52, 0.199133
1275.52, 0.198559
1276.52, 0.1981
1277.52, 0.197751
1278.52, 0.197496
1279.52, 0.197315
1280.52, 0.197188
1281.52, 0.1971
1282.52, 0.197046
1283.52, 0.197033
1284.52, 0.197074
1285.52, 0.197186
1286.52, 0.197383
1287.53, 0.197673
1288.53, 0.19805
1289.53, 0.198503
1290.53, 0.199011
1291.53, 0.199555
1292.53, 0.200118
1293.53, 0.200695
1294.53, 0.201288
1295.53, 0.20191
1296.53, 0.202578
1297.53, 0.203305
1298.53, 0.204102
1299.53, 0.204969
1300.53, 0.205896
1301.53, 0.206865
1302.54, 0.207858
1303.54, 0.208858
1304.54, 0.209853
1305.54, 0.210845
1306.54, 0.211842
1307.54, 0.212858
1308.54, 0.213911
1309.54, 0.215012
1310.54, 0.216168
1311.54, 0.217374
1312.54, 0.218617
1313.54, 0.219881
1314.54, 0.221146
1315.54, 0.222399
1316.54, 0.223634
1317.55, 0.224854
1318.55, 0.226072
1319.55, 0.227302
1320.55, 0.22856
1321.55, 0.229858
1322.55, 0.231199
1323.55, 0.232576
1324.55, 0.233976
1325.55, 0.235383
1326.55, 0.236779
1327.55, 0.238152
1328.55, 0.2395
1329.55, 0.240826
1330.55, 0.242142
1331.55, 0.243464
1332.56, 0.244808
1333.56, 0.246184
1334.56, 0.247595
1335.56, 0.249035
1336.56, 0.250492
1337.56, 0.25195
1338.56, 0.253391
1339.56, 0.254805
1340.56, 0.256189
1341.56, 0.257545
1342.56, 0.258885
1343.56, 0.260224
1344.56, 0.261579
1345.56, 0.262959
1346.56, 0.264369
1347.57, 0.265806
1348.57, 0.267259
1349.57, 0.268713
1350.57, 0.270151
1351.57, 0.271561
1352.57, 0.272938
1353.57, 0.274284
1354.57, 0.275607
1355.57, 0.276921
1356.57, 0.278242
1357.57, 0.279582
1358.57, 0.280948
1359.57, 0.282341
1360.57, 0.283753
1361.57, 0.28517
1362.58, 0.286578
1363.58, 0.287962
1364.58, 0.289313
1365.58, 0.29063
1366.58, 0.291917
1367.58, 0.293187
1368.58, 0.294452
1369.58, 0.295729
1370.58, 0.297026
1371.58, 0.29835
1372.58, 0.299695
1373.58, 0.301055
1374.58, 0.302414
1375.58, 0.303759
1376.58, 0.305077
1377.59, 0.306361
1378.59, 0.307611
1379.59, 0.308833
1380.59, 0.31004
1381.59, 0.311245
1382.59, 0.312462
1383.59, 0.3137
1384.59, 0.314962
1385.59, 0.316246
1386.59, 0.317541
1387.59, 0.318836
1388.59, 0.320115
1389.59, 0.321367
1390.59, 0.322585
1391.59, 0.32377
1392.6, 0.324928
1393.6, 0.326069
1394.6, 0.327208
1395.6, 0.328357
1396.6, 0.329526
1397.6, 0.330718
1398.6, 0.331933
1399.6, 0.33316
1400.6, 0.334389
1401.6, 0.335605
1402.6, 0.336797
1403.6, 0.337958
1404.6, 0.339085
1405.6, 0.340183
1406.6, 0.341262
1407.61, 0.342334
1408.61, 0.343412
1409.61, 0.344507
1410.61, 0.345625
1411.61, 0.346766
1412.61, 0.347923
1413.61, 0.349087
1414.61, 0.350245
1415.61, 0.351385
1416.61, 0.352496
1417.61, 0.353575
1418.61, 0.354623
1419.61, 0.355647
1420.61, 0.356658
1421.61, 0.357667
1422.62, 0.358688
1423.62, 0.359728
1424.62, 0.360791
1425.62, 0.361876
1426.62, 0.362974
1427.62, 0.364075
1428.62, 0.365166
1429.62, 0.366237
1430.62, 0.367279
1431.62, 0.36829
1432.62, 0.369272
1433.62, 0.370232
1434.62, 0.371181
1435.62, 0.372132
1436.62, 0.373095
1437.63, 0.374078
1438.63, 0.375084
1439.63, 0.376111
1440.63, 0.37715
1441.63, 0.378192
1442.63, 0.379225
1443.63, 0.380238
1444.63, 0.381223
1445.63, 0.382178
1446.63, 0.383105
1447.63, 0.38401
1448.63, 0.384904
1449.63, 0.385798
1450.63, 0.386703
1451.63, 0.387627
1452.64, 0.388574
1453.64, 0.389541
1454.64, 0.390524
1455.64, 0.391511
1456.64, 0.392493
1457.64, 0.393458
1458.64, 0.394399
1459.64, 0.39531
1460.64, 0.396193
1461.64, 0.397052
1462.64, 0.397897
1463.64, 0.398737
1464.64, 0.399585
1465.64, 0.400449
1466.64, 0.401334
1467.65, 0.40224
1468.65, 0.403165
1469.65, 0.4041
1470.65, 0.405036
1471.65, 0.405961
1472.65, 0.406866
1473.65, 0.407745
1474.65, 0.408596
1475.65, 0.40942
1476.65, 0.410224
1477.65, 0.411018
1478.65, 0.411812
1479.65, 0.412616
1480.65, 0.413437
1481.65, 0.41428
1482.66, 0.415144
1483.66, 0.416024
1484.66, 0.416913
1485.66, 0.4178
1486.66, 0.418676
1487.66, 0.419531
1488.66, 0.420361
1489.66, 0.421163
1490.66, 0.421941
1491.66, 0.422699
1492.66, 0.423449
1493.66, 0.424198
1494.66, 0.424957
1495.66, 0.425734
1496.66, 0.426532
1497.67, 0.42735
1498.67, 0.428185
1499.67, 0.429029
1500.67, 0.429874
1501.67, 0.430708
1502.67, 0.431524
1503.67, 0.432316
1504.67, 0.433082
1505.67, 0.433823
1506.67, 0.434544
1507.67, 0.435253
1508.67, 0.43596
1509.67, 0.436675
1510.67, 0.437404
1511.67, 0.438153
1512.68, 0.438924
1513.68, 0.439712
1514.68, 0.440513
1515.68, 0.441318
1516.68, 0.442118
1517.68, 0.442903
1518.68, 0.443668
1519.68, 0.444408
1520.68, 0.445123
1521.68, 0.445815
1522.68, 0.446492
1523.68, 0.447161
1524.68, 0.447832
1525.68, 0.448514
1526.68, 0.449212
1527.69, 0.44993
1528.69, 0.450668
1529.69, 0.451424
1530.69, 0.452189
1531.69, 0.452956
1532.69, 0.453716
1533.69, 0.454461
1534.69, 0.455185
1535.69, 0.455884
1536.69, 0.45656
1537.69, 0.457214
1538.69, 0.457855
1539.69, 0.458489
1540.69, 0.459125
1541.69, 0.459772
1542.7, 0.460436
1543.7, 0.46112
1544.7, 0.461823
1545.7, 0.462543
1546.7, 0.463273
1547.7, 0.464006
1548.7, 0.464733
1549.7, 0.465446
1550.7, 0.466139
1551.7, 0.466809
1552.7, 0.467456
1553.7, 0.468081
1554.7, 0.468692
1555.7, 0.469294
1556.7, 0.469897
1557.71, 0.470509
1558.71, 0.471135
1559.71, 0.471779
1560.71, 0.472444
1561.71, 0.473126
1562.71, 0.473821
1563.71, 0.474521
1564.71, 0.47522
1565.71, 0.475909
1566.71, 0.476581
1567.71, 0.477232
1568.71, 0.47786
1569.71, 0.478466
1570.71, 0.479054
1571.71, 0.47963
1572.72, 0.480202
1573.72, 0.480778
1574.72, 0.481364
1575.72, 0.481966
1576.72, 0.482587
1577.72, 0.483227
1578.72, 0.483884
1579.72, 0.484551
1580.72, 0.485222
1581.72, 0.48589
1582.72, 0.486547
1583.72, 0.487187
1584.72, 0.487806
1585.72, 0.488403
1586.72, 0.488978
1587.73, 0.489537
1588.73, 0.490085
1589.73, 0.49063
1590.73, 0.491178
1591.73, 0.491737
1592.73, 0.492311
1593.73, 0.492904
1594.73, 0.493515
1595.73, 0.494142
1596.73, 0.494781
1597.73, 0.495425
1598.73, 0.496066
1599.73, 0.496698
1600.73, 0.497314
1601.73, 0.497911
1602.74, 0.498487
1603.74, 0.499041
1604.74, 0.499579
1605.74, 0.500103
1606.74, 0.500622
1607.74, 0.501143
1608.74, 0.501671
1609.74, 0.502213
1610.74, 0.502772
1611.74, 0.50335
1612.74, 0.503944
1613.74, 0.504553
1614.74, 0.505169
1615.74, 0.505786
1616.74, 0.506398
1617.75, 0.506999
1618.75, 0.507582
1619.75, 0.508145
1620.75, 0.508688
1621.75, 0.509212
1622.75, 0.509719
1623.75, 0.510217
1624.75, 0.510712
1625.75, 0.51121
1626.75, 0.511717
1627.75, 0.512238
1628.75, 0.512777
1629.75, 0.513333
1630.75, 0.513906
1631.75, 0.514491
1632.76, 0.515083
1633.76, 0.515676
1634.76, 0.516263
1635.76, 0.516839
1636.76, 0.517398
1637.76, 0.517938
1638.76, 0.518457
1639.76, 0.518958
1640.76, 0.519444
1641.76, 0.519919
1642.76, 0.520391
1643.76, 0.520866
1644.76, 0.521348
1645.76, 0.521844
1646.76, 0.522356
1647.77, 0.522886
1648.77, 0.523432
1649.77, 0.523991
1650.77, 0.524559
1651.77, 0.525129
1652.77, 0.525696
1653.77, 0.526253
1654.77, 0.526796
1655.77, 0.527321
1656.77, 0.527826
1657.77, 0.528313
1658.77, 0.528783
1659.77, 0.529241
1660.77, 0.529693
1661.77, 0.530143
1662.78, 0.530599
1663.78, 0.531066
1664.78, 0.531546
1665.78, 0.532044
1666.78, 0.532557
1667.78, 0.533086
1668.78, 0.533627
1669.78, 0.534174
1670.78, 0.534722
1671.78, 0.535265
1672.78, 0.535798
1673.78, 0.536316
1674.78, 0.536816
1675.78, 0.537297
1676.78, 0.53776
1677.79, 0.538208
1678.79, 0.538645
1679.79, 0.539076
1680.79, 0.539506
1681.79, 0.539942
1682.79, 0.540388
1683.79, 0.540848
1684.79, 0.541324
1685.79, 0.541817
1686.79, 0.542324
1687.79, 0.542842
1688.79, 0.543368
1689.79, 0.543896
1690.79, 0.544419
1691.79, 0.544934
1692.8, 0.545435
1693.8, 0.545919
1694.8, 0.546386
1695.8, 0.546834
1696.8, 0.547267
1697.8, 0.547687
1698.8, 0.5481
1699.8, 0.548511
1700.8, 0.548925
1701.8, 0.549347
1702.8, 0.549781
1703.8, 0.55023
1704.8, 0.550695
1705.8, 0.551175
1706.8, 0.551669
1707.81, 0.552171
1708.81, 0.552679
1709.81, 0.553186
1710.81, 0.553687
1711.81, 0.554178
1712.81, 0.554655
1713.81, 0.555115
1714.81, 0.555557
1715.81, 0.555983
1716.81, 0.556394
1717.81, 0.556794
1718.81, 0.557188
1719.81, 0.557581
1720.81, 0.557978
1721.81, 0.558383
1722.82, 0.5588
1723.82, 0.559232
1724.82, 0.559679
1725.82, 0.560142
1726.82, 0.560617
1727.82, 0.561101
1728.82, 0.56159
1729.82, 0.562078
1730.82, 0.562562
1731.82, 0.563036
1732.82, 0.563496
1733.82, 0.563941
1734.82, 0.564369
1735.82, 0.56478
1736.82, 0.565177
1737.83, 0.565562
1738.83, 0.56594
1739.83, 0.566315
1740.83, 0.566693
1741.83, 0.567078
1742.83, 0.567474
1743.83, 0.567882
1744.83, 0.568306
1745.83, 0.568745
1746.83, 0.569197
1747.83, 0.56966
1748.83, 0.570129
1749.83, 0.570601
1750.83, 0.57107
1751.83, 0.571533
1752.84, 0.571985
1753.84, 0.572422
1754.84, 0.572844
1755.84, 0.573249
1756.84, 0.573639
1757.84, 0.574016
1758.84, 0.574383
1759.84, 0.574743
1760.84, 0.575103
1761.84, 0.575466
1762.84, 0.575836
1763.84, 0.576217
1764.84, 0.576611
1765.84, 0.57702
1766.84, 0.577444
1767.85, 0.57788
1768.85, 0.578326
1769.85, 0.578779
1770.85, 0.579234
1771.85, 0.579687
1772.85, 0.580134
1773.85, 0.58057
1774.85, 0.580993
1775.85, 0.581401
1776.85, 0.581793
1777.85, 0.58217
1778.85, 0.582533
1779.85, 0.582886
1780.85, 0.583233
1781.85, 0.583577
1782.86, 0.583923
1783.86, 0.584275
1784.86, 0.584637
1785.86, 0.58501
1786.86, 0.585398
1787.86, 0.5858
1788.86, 0.586214
1789.86, 0.58664
1790.86, 0.587075
1791.86, 0.587513
1792.86, 0.587952
1793.86, 0.588387
1794.86, 0.588814
1795.86, 0.58923
1796.86, 0.589632
1797.87, 0.590019
1798.87, 0.590391
1799.87, 0.590749
1800.87, 0.591095
1801.87, 0.591431
1802.87, 0.591762
1803.87, 0.592091
1804.87, 0.592423
1805.87, 0.592762
1806.87, 0.59311
1807.87, 0.59347
1808.87, 0.593844
1809.87, 0.594231
1810.87, 0.594631
1811.87, 0.595042
1812.88, 0.595461
1813.88, 0.595884
1814.88, 0.596308
1815.88, 0.596728
1816.88, 0.597141
1817.88, 0.597544
1818.88, 0.597933
1819.88, 0.598309
1820.88, 0.598669
1821.88, 0.599016
1822.88, 0.59935
1823.88, 0.599674
1824.88, 0.599993
1825.88, 0.600308
1826.88, 0.600625
1827.89, 0.600946
1828.89, 0.601276
1829.89, 0.601617
1830.89, 0.60197
1831.89, 0.602336
1832.89, 0.602715
1833.89, 0.603106
1834.89, 0.603506
1835.89, 0.603912
1836.89, 0.604321
1837.89, 0.604729
1838.89, 0.605133
1839.89, 0.605528
1840.89, 0.605912
1841.89, 0.606284
1842.9, 0.606641
1843.9, 0.606985
1844.9, 0.607315
1845.9, 0.607633
1846.9, 0.607943
1847.9, 0.608247
1848.9, 0.608549
1849.9, 0.608852
1850.9, 0.60916
1851.9, 0.609477
1852.9, 0.609804
1853.9, 0.610143
1854.9, 0.610494
1855.9, 0.610859
1856.9, 0.611234
1857.91, 0.611619
1858.91, 0.61201
1859.91, 0.612405
1860.91, 0.612799
1861.91, 0.61319
1862.91, 0.613573
1863.91, 0.613947
1864.91, 0.614308
1865.91, 0.614656
1866.91, 0.614991
1867.91, 0.615312
1868.91, 0.615622
1869.91, 0.615921
1870.91, 0.616214
1871.91, 0.616504
1872.92, 0.616793
1873.92, 0.617085
1874.92, 0.617383
1875.92, 0.617691
1876.92, 0.618009
1877.92, 0.61834
1878.92, 0.618683
1879.92, 0.619037
1880.92, 0.619402
1881.92, 0.619775
1882.92, 0.620154
1883.92, 0.620535
1884.92, 0.620915
1885.92, 0.621291
1886.92, 0.621659
1887.93, 0.622017
1888.93, 0.622364
1889.93, 0.622698
1890.93, 0.623019
1891.93, 0.623327
1892.93, 0.623623
1893.93, 0.62391
1894.93, 0.624191
1895.93, 0.624468
1896.93, 0.624744
1897.93, 0.625023
1898.93, 0.625308
1899.93, 0.625601
1900.93, 0.625904
1901.93, 0.626219
1902.94, 0.626546
1903.94, 0.626884
1904.94, 0.627233
1905.94, 0.627591
1906.94, 0.627955
1907.94, 0.628322
1908.94, 0.628689
1909.94, 0.629054
1910.94, 0.629413
1911.94, 0.629763
1912.94, 0.630103
1913.94, 0.630431
1914.94, 0.630746
1915.94, 0.631049
1916.94, 0.631339
1917.95, 0.63162
1918.95, 0.631892
1919.95, 0.632159
1920.95, 0.632423
1921.95, 0.632688
1922.95, 0.632956
1923.95, 0.633231
1924.95, 0.633513
1925.95, 0.633806
1926.95, 0.634111
1927.95, 0.634426
1928.95, 0.634753
1929.95, 0.63509
1930.95, 0.635435
1931.95, 0.635786
1932.96, 0.636141
1933.96, 0.636495
1934.96, 0.636847
1935.96, 0.637194
1936.96, 0.637533
1937.96, 0.637862
1938.96, 0.63818
1939.96, 0.638485
1940.96, 0.638778
1941.96, 0.63906
1942.96, 0.639331
1943.96, 0.639594
1944.96, 0.639851
1945.96, 0.640104
1946.96, 0.640357
1947.97, 0.640612
1948.97, 0.640872
1949.97, 0.641139
1950.97, 0.641415
1951.97, 0.641702
1952.97, 0.641999
1953.97, 0.642308
1954.97, 0.642627
1955.97, 0.642955
1956.97, 0.643291
1957.97, 0.643631
1958.97, 0.643974
1959.97, 0.644316
1960.97, 0.644654
1961.97, 0.644987
1962.98, 0.645312
1963.98, 0.645627
1964.98, 0.645931
1965.98, 0.646223
1966.98, 0.646504
1967.98, 0.646773
1968.98, 0.647033
1969.98, 0.647284
1970.98, 0.64753
1971.98, 0.647772
1972.98, 0.648014
1973.98, 0.648257
1974.98, 0.648505
1975.98, 0.64876
1976.98, 0.649024
1977.99, 0.649297
1978.99, 0.649581
1979.99, 0.649876
1980.99, 0.650181
1981.99, 0.650495
1982.99, 0.650817
1983.99, 0.651144
1984.99, 0.651474
1985.99, 0.651805
1986.99, 0.652134
1987.99, 0.652458
1988.99, 0.652775
1989.99, 0.653084
1990.99, 0.653382
1991.99, 0.65367
1993, 0.653946
1994, 0.654211
1995, 0.654465
1996, 0.654711
1997, 0.65495
1998, 0.655183
1999, 0.655415
2000, 0.655646


